Def. Height/mm,Force/N
0,48.39
0,48.24
0,47.96
0,47.81
0,47.92
0,48.98
0,50.18
0.01,51.24
0.01,52.43
0.01,53.56
0.01,54.64
0.01,55.68
0.02,57.12
0.02,58.58
0.02,60.05
0.02,60.9
0.03,61.66
0.03,62.4
0.03,62.93
0.03,63.51
0.04,64.09
0.04,64.81
0.04,65.52
0.04,66.33
0.05,67.17
0.05,68.02
0.05,68.85
0.06,69.67
0.06,70.41
0.06,70.78
0.07,70.97
0.07,71.03
0.07,71.02
0.08,71.08
0.08,71.37
0.08,71.69
0.09,72.03
0.09,72.27
0.09,72.12
0.1,71.74
0.1,71.35
0.1,70.99
0.11,70.71
0.11,70.7
0.11,70.94
0.12,71.19
0.12,71.51
0.12,71.86
0.13,72.29
0.13,72.62
0.13,73.01
0.14,73.41
0.14,73.84
0.14,74.27
0.15,74.91
0.15,75.67
0.15,76.39
0.16,77.22
0.16,78.34
0.16,79.37
0.17,80.54
0.17,81.68
0.17,82.57
0.18,82.88
0.18,82.94
0.18,82.83
0.19,82.73
0.19,82.82
0.19,83.16
0.2,83.65
0.2,84.08
0.2,84.39
0.21,84.73
0.21,85.07
0.21,85.38
0.22,85.74
0.22,86.22
0.22,86.66
0.23,87.11
0.23,87.49
0.23,87.56
0.24,87.21
0.24,86.75
0.24,86.24
0.25,85.89
0.25,85.68
0.25,85.8
0.26,85.85
0.26,85.82
0.26,85.62
0.27,85.63
0.27,85.66
0.27,85.75
0.28,85.93
0.28,86.24
0.28,86.44
0.29,86.59
0.29,86.84
0.29,87.13
0.3,87.42
0.3,87.63
0.3,87.94
0.31,88.29
0.31,88.53
0.31,88.77
0.32,89.19
0.32,89.56
0.32,89.96
0.33,90.54
0.33,91.18
0.33,91.89
0.34,92.8
0.34,93.9
0.34,95.4
0.35,97.36
0.35,98.38
0.35,99.53
0.35,100.75
0.35,101.98
0.35,103.26
0.36,104.64
0.36,105.94
0.36,107.13
0.36,108.97
0.37,110.38
0.37,111.32
0.37,111.7
0.38,111.58
0.38,111.56
0.38,111.54
0.39,111.42
0.39,111.49
0.39,111.57
0.4,111.82
0.4,112.01
0.4,112.42
0.41,112.8
0.41,113.34
0.41,113.81
0.42,114.38
0.42,114.94
0.42,115.45
0.43,116.01
0.43,116.53
0.43,117.16
0.44,117.72
0.44,118.21
0.44,118.73
0.45,119.21
0.45,119.54
0.45,119.8
0.46,120.05
0.46,120.19
0.46,120.23
0.47,120.27
0.47,120.28
0.47,120.32
0.48,120.53
0.48,120.78
0.48,121.09
0.49,121.55
0.49,122.14
0.49,122.66
0.5,123.15
0.5,123.73
0.5,124.24
0.51,124.67
0.51,125.01
0.51,125.74
0.52,126.69
0.52,127.97
0.52,129.65
0.52,130.71
0.53,131.81
0.53,132.97
0.53,134.12
0.53,135.26
0.53,136.4
0.53,137.58
0.54,138.78
0.54,139.95
0.54,141.13
0.54,142.3
0.54,143.43
0.54,144.58
0.55,145.67
0.55,146.77
0.55,147.9
0.55,148.97
0.55,150.11
0.55,151.21
0.56,152.33
0.56,153.39
0.56,154.54
0.56,155.68
0.56,156.79
0.56,157.97
0.57,159.1
0.57,160.31
0.57,161.43
0.57,162.61
0.57,163.72
0.57,164.83
0.58,165.9
0.58,166.9
0.58,167.95
0.58,169.97
0.59,171.84
0.59,173.74
0.59,174.79
0.59,175.9
0.59,177.04
0.6,178.25
0.6,179.51
0.6,180.79
0.6,182.16
0.6,183.61
0.6,185.1
0.61,186.61
0.61,188.05
0.61,189.53
0.61,190.99
0.61,192.4
0.61,193.81
0.62,195.24
0.62,196.65
0.62,198.01
0.62,199.35
0.62,200.65
0.62,201.99
0.63,203.25
0.63,204.5
0.63,205.79
0.63,207.04
0.63,208.22
0.63,209.37
0.64,210.55
0.64,211.77
0.64,212.98
0.64,214.21
0.64,215.53
0.64,216.86
0.65,218.15
0.65,219.5
0.65,220.91
0.65,222.36
0.65,223.83
0.65,225.22
0.66,226.65
0.66,228.08
0.66,229.54
0.66,231.01
0.66,232.53
0.66,234.08
0.67,235.65
0.67,237.29
0.67,238.88
0.67,240.53
0.67,242.16
0.67,243.84
0.68,245.51
0.68,247.17
0.68,248.84
0.68,250.53
0.68,252.21
0.68,253.84
0.69,255.51
0.69,257.18
0.69,258.88
0.69,260.58
0.69,262.31
0.69,264.1
0.7,265.83
0.7,267.58
0.7,269.28
0.7,271.01
0.7,272.82
0.7,274.64
0.71,276.47
0.71,278.29
0.71,280.04
0.71,281.83
0.71,283.66
0.71,285.43
0.72,287.27
0.72,289.12
0.72,290.92
0.72,292.68
0.72,294.43
0.72,296.13
0.73,297.87
0.73,299.52
0.73,301.21
0.73,302.93
0.73,304.61
0.73,306.29
0.74,307.97
0.74,309.69
0.74,311.43
0.74,313.2
0.74,314.99
0.74,316.79
0.75,318.61
0.75,320.39
0.75,322.24
0.75,324.13
0.75,325.97
0.75,327.86
0.76,329.86
0.76,331.86
0.76,333.93
0.76,336.08
0.76,338.25
0.76,340.5
0.77,342.76
0.77,345.03
0.77,347.42
0.77,349.81
0.77,352.23
0.77,354.67
0.78,357.15
0.78,359.7
0.78,362.26
0.78,364.83
0.78,367.36
0.78,369.89
0.79,372.45
0.79,375.08
0.79,377.61
0.79,380.2
0.79,382.76
0.79,385.29
0.8,387.81
0.8,390.42
0.8,393.01
0.8,395.62
0.8,398.18
0.8,400.78
0.81,403.4
0.81,406
0.81,408.61
0.81,411.18
0.81,413.81
0.81,416.47
0.82,419.15
0.82,421.9
0.82,424.73
0.82,427.53
0.82,430.39
0.82,433.2
0.83,436.03
0.83,438.87
0.83,441.78
0.83,444.64
0.83,447.58
0.83,450.45
0.84,453.26
0.84,456.11
0.84,458.92
0.84,461.78
0.84,464.67
0.84,467.62
0.85,470.54
0.85,473.43
0.85,476.28
0.85,479.14
0.85,481.98
0.85,484.73
0.86,487.51
0.86,490.4
0.86,493.26
0.86,496.06
0.86,498.9
0.86,501.73
0.87,504.58
0.87,507.53
0.87,510.58
0.87,513.72
0.87,516.86
0.87,519.93
0.88,523.04
0.88,526.22
0.88,529.36
0.88,532.5
0.88,535.68
0.88,538.75
0.89,541.83
0.89,544.97
0.89,548.11
0.89,551.18
0.89,554.28
0.89,557.36
0.9,560.39
0.9,563.54
0.9,566.7
0.9,569.92
0.9,573.18
0.9,576.28
0.91,579.56
0.91,583.01
0.91,586.61
0.91,590.23
0.91,593.93
0.91,597.61
0.92,601.28
0.92,604.9
0.92,608.58
0.92,612.34
0.92,615.93
0.92,619.5
0.93,622.9
0.93,626.34
0.93,629.93
0.93,633.53
0.93,637.18
0.93,640.89
0.94,644.51
0.94,648.2
0.94,651.95
0.94,655.72
0.94,659.54
0.94,663.43
0.95,667.26
0.95,671.08
0.95,674.89
0.95,678.75
0.95,682.65
0.95,686.59
0.96,690.58
0.96,694.54
0.96,698.54
0.96,702.45
0.96,706.43
0.96,710.47
0.97,714.5
0.97,718.5
0.97,722.5
0.97,726.53
0.97,730.56
0.97,734.62
0.98,738.65
0.98,742.72
0.98,746.75
0.98,750.84
0.98,755.03
0.98,759.34
0.99,763.72
0.99,768.03
0.99,772.34
0.99,776.68
0.99,781
0.99,785.43
1,789.84
1,794.25
1,798.65
1,803
1,807.31
1,811.78
1.01,816.22
1.01,820.62
1.01,825.18
1.01,829.75
1.01,834.34
1.01,838.93
1.02,843.59
1.02,848.22
1.02,852.84
1.02,857.4
1.02,861.93
1.02,866.62
1.03,871.31
1.03,875.93
1.03,880.47
1.03,885.06
1.03,889.62
1.03,894.22
1.04,898.97
1.04,903.87
1.04,908.93
1.04,913.97
1.04,919
1.04,924.03
1.05,929.22
1.05,934.34
1.05,939.47
1.05,944.75
1.05,949.96
1.05,955.12
1.06,960.21
1.06,965.4
1.06,970.56
1.06,975.78
1.06,981
1.06,986.43
1.07,991.87
1.07,997.25
1.07,1002.62
1.07,1008.06
1.07,1013.46
1.07,1018.78
1.08,1024.15
1.08,1029.59
1.08,1034.96
1.08,1040.28
1.08,1045.62
1.08,1051
1.09,1056.34
1.09,1061.65
1.09,1067.15
1.09,1072.71
1.09,1078.18
1.09,1083.75
1.1,1089.4
1.1,1095.18
1.1,1100.84
1.1,1106.65
1.1,1112.4
1.1,1118.15
1.11,1123.93
1.11,1129.78
1.11,1135.71
1.11,1141.62
1.11,1147.56
1.11,1153.4
1.12,1159.28
1.12,1165.09
1.12,1170.93
1.12,1176.87
1.12,1182.84
1.12,1188.78
1.13,1194.75
1.13,1200.65
1.13,1206.53
1.13,1212.46
1.13,1218.34
1.13,1224.34
1.14,1230.46
1.14,1236.59
1.14,1242.65
1.14,1248.62
1.14,1254.62
1.14,1260.68
1.15,1266.71
1.15,1272.81
1.15,1279.03
1.15,1285.31
1.15,1291.56
1.15,1297.78
1.16,1304
1.16,1310.34
1.16,1316.71
1.16,1323.06
1.16,1329.5
1.16,1335.96
1.17,1342.5
1.17,1348.87
1.17,1355.18
1.17,1361.53
1.17,1367.87
1.17,1374.25
1.18,1380.75
1.18,1387.25
1.18,1393.71
1.18,1400.18
1.18,1406.56
1.18,1413.03
1.19,1419.46
1.19,1425.96
1.19,1432.46
1.19,1438.93
1.19,1445.37
1.19,1451.71
1.2,1458.18
1.2,1464.56
1.2,1471.03
1.2,1477.43
1.2,1483.93
1.2,1490.43
1.21,1497.06
1.21,1503.71
1.21,1510.46
1.21,1517.18
1.21,1523.81
1.21,1530.59
1.22,1537.37
1.22,1544.31
1.22,1551.15
1.22,1558.15
1.22,1565.12
1.22,1572.03
1.23,1578.96
1.23,1585.87
1.23,1592.87
1.23,1599.87
1.23,1606.93
1.23,1614
1.24,1621.18
1.24,1628.28
1.24,1635.34
1.24,1642.4
1.24,1649.37
1.24,1656.4
1.25,1663.37
1.25,1670.46
1.25,1677.46
1.25,1684.46
1.25,1691.37
1.25,1698.28
1.26,1705.21
1.26,1712.25
1.26,1719.34
1.26,1726.53
1.26,1733.84
1.26,1741.09
1.27,1748.34
1.27,1755.59
1.27,1762.9
1.27,1770.21
1.27,1777.68
1.27,1785.21
1.28,1792.81
1.28,1800.4
1.28,1807.96
1.28,1815.5
1.28,1823.03
1.28,1830.56
1.29,1838.12
1.29,1845.75
1.29,1853.53
1.29,1861.43
1.29,1869.31
1.29,1877.18
1.3,1885.09
1.3,1892.96
1.3,1900.84
1.3,1908.78
1.3,1916.84
1.3,1924.75
1.31,1932.53
1.31,1940.06
1.31,1947.75
1.31,1955.43
1.31,1963.06
1.31,1970.9
1.32,1978.84
1.32,1986.84
1.32,1994.81
1.32,2002.87
1.32,2011
1.32,2019.06
1.33,2027.18
1.33,2035.31
1.33,2043.56
1.33,2051.68
1.33,2059.87
1.33,2068.06
1.34,2076.18
1.34,2084.25
1.34,2092.31
1.34,2100.43
1.34,2108.62
1.34,2116.75
1.35,2125
1.35,2133.25
1.35,2141.5
1.35,2149.68
1.35,2157.93
1.35,2166.06
1.36,2174.31
1.36,2182.62
1.36,2190.93
1.36,2199.18
1.36,2207.43
1.36,2215.68
1.37,2223.87
1.37,2232.06
1.37,2240.37
1.37,2248.87
1.37,2257.43
1.37,2266.06
1.38,2274.62
1.38,2283.25
1.38,2291.81
1.38,2300.43
1.38,2309.12
1.38,2317.87
1.39,2326.62
1.39,2335.37
1.39,2344.25
1.39,2352.81
1.39,2361.5
1.39,2370.18
1.4,2378.93
1.4,2387.81
1.4,2396.68
1.4,2405.62
1.4,2414.5
1.4,2423.37
1.41,2432.12
1.41,2440.93
1.41,2449.68
1.41,2458.56
1.41,2467.5
1.41,2476.31
1.42,2485.18
1.42,2493.93
1.42,2502.75
1.42,2511.5
1.42,2520.18
1.42,2529
1.43,2537.81
1.43,2546.75
1.43,2555.62
1.43,2564.62
1.43,2573.56
1.43,2582.62
1.44,2591.62
1.44,2600.68
1.44,2609.93
1.44,2619.31
1.44,2628.68
1.44,2638.06
1.45,2647.31
1.45,2656.62
1.45,2665.93
1.45,2675.25
1.45,2684.62
1.45,2694.06
1.46,2703.56
1.46,2712.93
1.46,2722.31
1.46,2731.75
1.46,2741.18
1.46,2750.62
1.47,2760.06
1.47,2769.43
1.47,2778.81
1.47,2788.25
1.47,2797.56
1.47,2807
1.48,2816.43
1.48,2825.87
1.48,2835.31
1.48,2844.81
1.48,2854.43
1.48,2864.25
1.49,2874.12
1.49,2884
1.49,2893.87
1.49,2903.75
1.49,2913.5
1.49,2923.31
1.5,2933.18
1.5,2943.18
1.5,2953.06
1.5,2962.93
1.5,2972.68
1.5,2982.37
1.51,2992.12
1.51,3001.87
1.51,3011.68
1.51,3021.5
1.51,3031.43
1.51,3041.37
1.52,3051.25
1.52,3061.12
1.52,3071.12
1.52,3081.18
1.52,3091.25
1.52,3101.31
1.53,3111.5
1.53,3121.75
1.53,3132.06
1.53,3142.5
1.53,3153
1.53,3163.62
1.54,3174.31
1.54,3185.06
1.54,3196.12
1.54,3207.25
1.54,3218.37
1.54,3229.56
1.55,3240.81
1.55,3251.75
1.55,3262.75
1.55,3273.81
1.55,3285
1.55,3296.18
1.56,3307.37
1.56,3318.5
1.56,3329.62
1.56,3340.81
1.56,3351.93
1.56,3363.12
1.57,3374.37
1.57,3385.75
1.57,3397.12
1.57,3408.43
1.57,3419.75
1.57,3431.12
1.58,3442.37
1.58,3453.56
1.58,3465
1.58,3476.43
1.58,3487.93
1.58,3499.18
1.59,3510.43
1.59,3521.68
1.59,3532.93
1.59,3544.25
1.59,3555.68
1.59,3567.37
1.6,3578.87
1.6,3590.5
1.6,3602.12
1.6,3613.81
1.6,3625.56
1.6,3637.31
1.61,3649.31
1.61,3661.37
1.61,3673.43
1.61,3685.56
1.61,3697.62
1.61,3709.62
1.62,3721.62
1.62,3733.5
1.62,3745.56
1.62,3757.68
1.62,3769.81
1.62,3781.93
1.63,3794
1.63,3806
1.63,3817.93
1.63,3830
1.63,3842.06
1.63,3854.31
1.64,3866.56
1.64,3878.62
1.64,3890.68
1.64,3902.5
1.64,3914.37
1.64,3926.25
1.65,3938.12
1.65,3950.18
1.65,3962.31
1.65,3974.56
1.65,3986.75
1.65,3999
1.66,4011.37
1.66,4023.87
1.66,4036.37
1.66,4049.06
1.66,4061.93
1.66,4074.75
1.67,4087.62
1.67,4100.43
1.67,4113.25
1.67,4126
1.67,4138.81
1.67,4151.62
1.68,4164.5
1.68,4177.5
1.68,4190.37
1.68,4203.18
1.68,4215.93
1.68,4228.68
1.69,4241.43
1.69,4254.25
1.69,4267.12
1.69,4280.12
1.69,4293
1.69,4305.75
1.7,4318.37
1.7,4331.06
1.7,4343.68
1.7,4356.37
1.7,4369.18
1.7,4382
1.71,4394.81
1.71,4407.68
1.71,4420.87
1.71,4434.25
1.71,4447.68
1.71,4461.12
1.72,4474.68
1.72,4488.5
1.72,4502.37
1.72,4516.31
1.72,4530.18
1.72,4544
1.73,4557.43
1.73,4570.81
1.73,4584.31
1.73,4598
1.73,4611.68
1.73,4625.18
1.74,4638.56
1.74,4651.93
1.74,4665.31
1.74,4678.68
1.74,4692.12
1.74,4705.68
1.75,4719.18
1.75,4732.56
1.75,4745.87
1.75,4759.06
1.75,4772.18
1.75,4785.31
1.76,4798.37
1.76,4811.56
1.76,4824.75
1.76,4838.06
1.76,4851.37
1.76,4864.75
1.77,4878.06
1.77,4891.56
1.77,4905.12
1.77,4918.93
1.77,4932.75
1.77,4946.75
1.78,4960.62
1.78,4974.43
1.78,4988.31
1.78,5002.12
1.78,5016
1.78,5029.81
1.79,5043.68
1.79,5057.5
1.79,5071.43
1.79,5085.18
1.79,5098.93
1.79,5112.62
1.8,5126.12
1.8,5139.62
1.8,5153.25
1.8,5166.93
1.8,5180.5
1.8,5194
1.81,5207.37
1.81,5220.62
1.81,5233.93
1.81,5247.37
1.81,5260.87
1.81,5274.43
1.82,5288
1.82,5301.68
1.82,5315.37
1.82,5329.06
1.82,5342.87
1.82,5356.75
1.83,5370.68
1.83,5384.81
1.83,5399
1.83,5413.12
1.83,5427.31
1.83,5441.37
1.84,5455.37
1.84,5469.37
1.84,5483.31
1.84,5497.31
1.84,5511.31
1.84,5525.12
1.85,5538.87
1.85,5552.81
1.85,5566.56
1.85,5580.25
1.85,5594
1.85,5607.81
1.86,5621.68
1.86,5635.5
1.86,5649.25
1.86,5663.06
1.86,5676.81
1.86,5690.31
1.87,5704.06
1.87,5718.12
1.87,5732.31
1.87,5746.56
1.87,5760.75
1.87,5775
1.88,5789.31
1.88,5803.62
1.88,5817.93
1.88,5832.5
1.88,5846.87
1.88,5861.12
1.89,5875.32
1.89,5889.38
1.89,5903.38
1.89,5917.44
1.89,5931.44
1.89,5945.44
1.9,5959.51
1.9,5973.57
1.9,5987.76
1.9,6001.76
1.9,6015.76
1.9,6029.76
1.91,6043.88
1.91,6057.88
1.91,6071.94
1.91,6086.07
1.91,6100.19
1.91,6114.26
1.92,6128.32
1.92,6142.32
1.92,6156.19
1.92,6170.07
1.92,6183.82
1.92,6197.69
1.93,6211.69
1.93,6225.63
1.93,6239.57
1.93,6253.44
1.93,6267.44
1.93,6281.63
1.94,6295.76
1.94,6310.07
1.94,6324.51
1.94,6338.94
1.94,6353.44
1.94,6367.94
1.95,6382.51
1.95,6397.13
1.95,6411.44
1.95,6425.88
1.95,6440.38
1.95,6454.94
1.96,6469.38
1.96,6483.69
1.96,6497.88
1.96,6512.07
1.96,6526.13
1.96,6540.26
1.97,6554.44
1.97,6568.51
1.97,6582.57
1.97,6596.57
1.97,6610.38
1.97,6624.13
1.98,6637.69
1.98,6651.19
1.98,6664.69
1.98,6678.32
1.98,6692.01
1.98,6705.76
1.99,6719.44
1.99,6733.13
1.99,6747.07
1.99,6761.13
1.99,6775.44
1.99,6790.01
2,6804.57
2,6819.07
2,6833.38
2,6847.76
2,6862.13
2,6876.44
2.01,6890.76
2.01,6905.13
2.01,6919.44
2.01,6933.63
2.01,6947.63
2.01,6961.76
2.02,6975.63
2.02,6989.51
2.02,7003.57
2.02,7017.69
2.02,7031.76
2.02,7045.69
2.03,7059.51
2.03,7073.32
2.03,7087.19
2.03,7100.94
2.03,7114.69
2.03,7128.57
2.04,7142.32
2.04,7156.07
2.04,7169.88
2.04,7183.82
2.04,7197.82
2.04,7211.88
2.05,7225.88
2.05,7240.01
2.05,7254.26
2.05,7268.51
2.05,7282.76
2.05,7296.94
2.06,7311.01
2.06,7325.01
2.06,7339.01
2.06,7352.76
2.06,7366.51
2.06,7380.32
2.07,7394.07
2.07,7407.82
2.07,7421.38
2.07,7434.94
2.07,7448.44
2.07,7461.88
2.08,7475.44
2.08,7489.19
2.08,7503.01
2.08,7516.76
2.08,7530.38
2.08,7543.94
2.09,7557.38
2.09,7570.82
2.09,7584.32
2.09,7597.82
2.09,7611.26
2.09,7624.69
2.1,7638.13
2.1,7651.76
2.1,7665.32
2.1,7678.94
2.1,7692.63
2.1,7706.38
2.11,7720.38
2.11,7734.38
2.11,7748.26
2.11,7762.13
2.11,7775.88
2.11,7789.51
2.12,7803.13
2.12,7816.88
2.12,7830.76
2.12,7844.57
2.12,7858.32
2.12,7872.07
2.13,7885.88
2.13,7899.76
2.13,7913.51
2.13,7927.32
2.13,7941.19
2.13,7954.94
2.14,7968.63
2.14,7982.38
2.14,7996.01
2.14,8009.44
2.14,8022.69
2.14,8035.88
2.15,8049.32
2.15,8062.76
2.15,8076.13
2.15,8089.51
2.15,8102.94
2.15,8116.38
2.16,8129.82
2.16,8143.26
2.16,8156.88
2.16,8170.69
2.16,8184.44
2.16,8198.26
2.17,8212.13
2.17,8226.01
2.17,8239.88
2.17,8253.76
2.17,8267.57
2.17,8281.63
2.18,8296.13
2.18,8310.51
2.18,8324.76
2.18,8339.07
2.18,8353.32
2.18,8367.38
2.19,8381.44
2.19,8395.57
2.19,8409.76
2.19,8423.82
2.19,8437.32
2.19,8450.76
2.2,8464.13
2.2,8477.32
2.2,8490.38
2.2,8503.44
2.2,8516.57
2.2,8529.76
2.21,8543.01
2.21,8556.32
2.21,8569.76
2.21,8583.26
2.21,8596.82
2.21,8610.51
2.22,8624.51
2.22,8638.69
2.22,8652.88
2.22,8666.94
2.22,8680.88
2.22,8694.88
2.23,8708.88
2.23,8722.69
2.23,8736.51
2.23,8750.38
2.23,8764.26
2.23,8777.88
2.24,8791.51
2.24,8805.01
2.24,8818.44
2.24,8831.76
2.24,8844.94
2.24,8858.26
2.25,8871.57
2.25,8884.63
2.25,8897.51
2.25,8910.38
2.25,8923.19
2.25,8935.94
2.26,8948.82
2.26,8961.88
2.26,8975.07
2.26,8988.19
2.26,9001.51
2.26,9014.94
2.27,9028.44
2.27,9042.07
2.27,9055.76
2.27,9069.44
2.27,9083.26
2.27,9097.07
2.28,9110.88
2.28,9124.69
2.28,9138.51
2.28,9152.26
2.28,9165.82
2.28,9179.32
2.29,9192.94
2.29,9206.57
2.29,9220.01
2.29,9233.38
2.29,9246.63
2.29,9259.69
2.3,9272.69
2.3,9285.76
2.3,9299.01
2.3,9312.38
2.3,9325.57
2.3,9338.82
2.31,9352.07
2.31,9365.13
2.31,9378.19
2.31,9391.19
2.31,9404.26
2.31,9417.38
2.32,9430.51
2.32,9443.57
2.32,9456.63
2.32,9469.63
2.32,9482.63
2.32,9495.57
2.33,9508.76
2.33,9522.07
2.33,9535.44
2.33,9548.76
2.33,9561.76
2.33,9574.69
2.34,9587.88
2.34,9601.07
2.34,9614.44
2.34,9627.88
2.34,9641.44
2.34,9654.88
2.35,9668.32
2.35,9681.69
2.35,9695.26
2.35,9708.82
2.35,9722.07
2.35,9735.38
2.36,9748.69
2.36,9761.88
2.36,9774.94
2.36,9787.88
2.36,9800.76
2.36,9813.51
2.37,9826.07
2.37,9838.69
2.37,9851.44
2.37,9864.13
2.37,9876.88
2.37,9889.63
2.38,9902.38
2.38,9915.26
2.38,9928.01
2.38,9940.82
2.38,9953.94
2.38,9967.07
2.39,9980.26
2.39,9993.44
2.39,10006.63
2.39,10019.88
2.39,10033.07
2.39,10046.13
2.4,10059.38
2.4,10072.76
2.4,10086.07
2.4,10099.38
2.4,10112.57
2.4,10125.51
2.41,10138.38
2.41,10151.13
2.41,10164.01
2.41,10176.94
2.41,10189.76
2.41,10202.44
2.42,10214.82
2.42,10227.07
2.42,10239.13
2.42,10251.19
2.42,10263.07
2.42,10274.94
2.43,10286.63
2.43,10298.32
2.43,10310.13
2.43,10322.13
2.43,10334.19
2.43,10346.32
2.44,10358.69
2.44,10371.26
2.44,10384.13
2.44,10397.07
2.44,10410.13
2.44,10423.19
2.45,10436.13
2.45,10449.07
2.45,10461.88
2.45,10474.76
2.45,10487.69
2.45,10500.44
2.46,10513.19
2.46,10525.88
2.46,10538.38
2.46,10550.88
2.46,10563.32
2.46,10575.69
2.47,10588.19
2.47,10600.63
2.47,10612.94
2.47,10625.19
2.47,10637.38
2.47,10649.57
2.48,10661.63
2.48,10673.63
2.48,10685.69
2.48,10697.94
2.48,10710.19
2.48,10722.51
2.49,10734.88
2.49,10747.38
2.49,10759.94
2.49,10772.51
2.49,10785.13
2.49,10798.01
2.5,10810.94
2.5,10823.82
2.5,10836.63
2.5,10849.44
2.5,10862.26
2.5,10875.01
2.51,10887.88
2.51,10900.76
2.51,10913.69
2.51,10926.51
2.51,10939.07
2.51,10951.63
2.52,10964.19
2.52,10976.63
2.52,10988.88
2.52,11001.13
2.52,11013.26
2.52,11025.44
2.53,11037.57
2.53,11049.63
2.53,11061.82
2.53,11073.76
2.53,11085.63
2.53,11097.44
2.54,11109.38
2.54,11121.32
2.54,11133.38
2.54,11145.38
2.54,11157.38
2.54,11169.38
2.55,11181.38
2.55,11193.51
2.55,11205.82
2.55,11218.26
2.55,11230.76
2.55,11243.13
2.56,11255.32
2.56,11267.44
2.56,11279.57
2.56,11291.76
2.56,11303.82
2.56,11316.07
2.57,11328.26
2.57,11340.26
2.57,11352.32
2.57,11364.32
2.57,11376.51
2.57,11388.69
2.58,11400.88
2.58,11413.07
2.58,11425.32
2.58,11437.44
2.58,11449.44
2.58,11461.38
2.59,11473.32
2.59,11485.01
2.59,11496.57
2.59,11508.13
2.59,11519.69
2.59,11531.19
2.6,11542.69
2.6,11554.19
2.6,11565.82
2.6,11577.51
2.6,11589.13
2.6,11600.88
2.61,11612.82
2.61,11624.76
2.61,11636.82
2.61,11648.94
2.61,11661.07
2.61,11673.13
2.62,11685.19
2.62,11697.32
2.62,11709.63
2.62,11721.94
2.62,11734.19
2.62,11746.32
2.63,11758.32
2.63,11770.26
2.63,11782.19
2.63,11793.94
2.63,11805.76
2.63,11817.51
2.64,11829.13
2.64,11840.57
2.64,11852.01
2.64,11863.32
2.64,11874.44
2.64,11885.32
2.65,11896.19
2.65,11907.26
2.65,11918.32
2.65,11929.32
2.65,11940.44
2.65,11951.63
2.66,11962.76
2.66,11974.01
2.66,11985.63
2.66,11997.51
2.66,12009.44
2.66,12021.44
2.67,12033.38
2.67,12045.19
2.67,12057.01
2.67,12068.88
2.67,12080.69
2.67,12092.44
2.68,12104.19
2.68,12115.82
2.68,12127.32
2.68,12138.63
2.68,12149.82
2.68,12161.01
2.69,12172.19
2.69,12183.57
2.69,12194.94
2.69,12206.38
2.69,12217.57
2.69,12228.76
2.7,12239.82
2.7,12250.76
2.7,12261.76
2.7,12272.69
2.7,12283.82
2.7,12294.63
2.71,12305.44
2.71,12316.26
2.71,12327.26
2.71,12338.32
2.71,12349.63
2.71,12361.07
2.72,12372.51
2.72,12383.94
2.72,12395.44
2.72,12406.96
2.72,12418.4
2.72,12429.9
2.73,12441.27
2.73,12452.59
2.73,12463.71
2.73,12474.77
2.73,12485.84
2.73,12496.9
2.74,12507.9
2.74,12518.77
2.74,12529.65
2.74,12540.4
2.74,12551.15
2.74,12561.96
2.75,12572.84
2.75,12583.65
2.75,12594.59
2.75,12605.46
2.75,12616.21
2.75,12626.71
2.76,12637.09
2.76,12647.4
2.76,12657.71
2.76,12667.96
2.76,12678.34
2.76,12688.71
2.77,12699.09
2.77,12709.27
2.77,12719.59
2.77,12729.96
2.77,12740.65
2.77,12751.4
2.78,12762.09
2.78,12772.77
2.78,12783.27
2.78,12793.65
2.78,12803.96
2.78,12814.21
2.79,12824.65
2.79,12835.21
2.79,12845.59
2.79,12855.96
2.79,12866.27
2.79,12876.59
2.8,12886.96
2.8,12897.34
2.8,12907.77
2.8,12918.52
2.8,12929.02
2.8,12939.4
2.81,12949.71
2.81,12960.09
2.81,12970.27
2.81,12980.34
2.81,12990.4
2.81,13000.65
2.82,13010.77
2.82,13020.71
2.82,13030.65
2.82,13040.71
2.82,13050.84
2.82,13060.96
2.83,13071.15
2.83,13081.52
2.83,13091.96
2.83,13102.34
2.83,13112.77
2.83,13123.27
2.84,13133.77
2.84,13144.27
2.84,13154.84
2.84,13165.46
2.84,13176.09
2.84,13186.71
2.85,13197.27
2.85,13207.71
2.85,13218.02
2.85,13228.27
2.85,13238.52
2.85,13248.59
2.86,13258.52
2.86,13268.46
2.86,13278.4
2.86,13288.15
2.86,13297.71
2.86,13307.21
2.87,13316.46
2.87,13325.65
2.87,13334.71
2.87,13343.84
2.87,13353.02
2.87,13362.15
2.88,13371.21
2.88,13380.52
2.88,13389.84
2.88,13399.34
2.88,13409.15
2.88,13419.21
2.89,13429.34
2.89,13439.52
2.89,13449.59
2.89,13459.65
2.89,13469.84
2.89,13480.15
2.9,13490.52
2.9,13500.96
2.9,13511.4
2.9,13521.59
2.9,13531.71
2.9,13541.77
2.91,13551.77
2.91,13561.71
2.91,13571.65
2.91,13581.27
2.91,13590.9
2.91,13600.27
2.92,13609.52
2.92,13618.71
2.92,13627.84
2.92,13636.9
2.92,13645.96
2.92,13655.15
2.93,13664.27
2.93,13673.4
2.93,13682.4
2.93,13691.71
2.93,13700.96
2.93,13710.34
2.94,13719.71
2.94,13729.4
2.94,13739.09
2.94,13748.71
2.94,13758.21
2.94,13767.77
2.95,13777.34
2.95,13786.77
2.95,13796.21
2.95,13805.59
2.95,13815.02
2.95,13824.21
2.96,13833.34
2.96,13842.34
2.96,13851.34
2.96,13860.21
2.96,13869.02
2.96,13877.77
2.97,13886.4
2.97,13895.21
2.97,13904.02
2.97,13912.84
2.97,13921.52
2.97,13930.27
2.98,13938.96
2.98,13947.46
2.98,13956.02
2.98,13964.65
2.98,13973.34
2.98,13981.96
2.99,13990.52
2.99,13999.15
2.99,14007.71
2.99,14016.27
2.99,14024.9
2.99,14033.84
3,14042.77
3,14051.9
3,14060.77
3,14069.65
3,14078.4
3,14087.15
3.01,14095.96
3.01,14104.84
3.01,14113.71
3.01,14122.59
3.01,14131.59
3.01,14140.34
3.02,14149.15
3.02,14158.02
3.02,14167.02
3.02,14176.02
3.02,14184.9
3.02,14193.96
3.03,14202.84
3.03,14211.65
3.03,14220.15
3.03,14228.65
3.03,14237.15
3.03,14245.34
3.04,14253.46
3.04,14261.65
3.04,14269.84
3.04,14277.84
3.04,14285.84
3.04,14294.02
3.05,14302.15
3.05,14310.34
3.05,14318.52
3.05,14326.96
3.05,14335.34
3.05,14343.71
3.06,14352.15
3.06,14360.65
3.06,14369.21
3.06,14377.9
3.06,14386.46
3.06,14395.15
3.07,14403.77
3.07,14412.4
3.07,14420.96
3.07,14429.65
3.07,14438.15
3.07,14446.59
3.08,14454.9
3.08,14463.09
3.08,14471.34
3.08,14479.65
3.08,14487.77
3.08,14495.84
3.09,14503.74
3.09,14511.4
3.09,14518.96
3.09,14526.43
3.09,14533.87
3.09,14541.3
3.1,14548.65
3.1,14555.99
3.1,14563.49
3.1,14571.05
3.1,14578.74
3.1,14586.65
3.11,14594.71
3.11,14603.02
3.11,14611.4
3.11,14619.77
3.11,14628.21
3.11,14636.59
3.12,14644.84
3.12,14653.02
3.12,14661.27
3.12,14669.46
3.12,14677.52
3.12,14685.52
3.13,14693.3
3.13,14701.05
3.13,14708.71
3.13,14716.3
3.13,14723.8
3.13,14731.37
3.14,14738.8
3.14,14746.12
3.14,14753.4
3.14,14760.55
3.14,14767.71
3.14,14774.74
3.15,14781.93
3.15,14789.27
3.15,14796.8
3.15,14804.21
3.15,14811.71
3.15,14819.3
3.16,14827.05
3.16,14834.93
3.16,14842.87
3.16,14850.87
3.16,14858.77
3.16,14866.68
3.17,14874.55
3.17,14882.52
3.17,14890.34
3.17,14898.05
3.17,14905.8
3.17,14913.43
3.18,14921.02
3.18,14928.62
3.18,14936.18
3.18,14943.55
3.18,14950.96
3.18,14958.24
3.19,14965.52
3.19,14972.77
3.19,14979.9
3.19,14987.15
3.19,14994.59
3.19,15001.84
3.2,15009.09
3.2,15016.3
3.2,15023.37
3.2,15030.3
3.2,15037.37
3.2,15044.4
3.21,15051.46
3.21,15058.4
3.21,15065.21
3.21,15072.24
3.21,15079.15
3.21,15085.99
3.22,15093.02
3.22,15100.18
3.22,15107.27
3.22,15114.43
3.22,15121.62
3.22,15128.74
3.23,15135.71
3.23,15142.59
3.23,15149.49
3.23,15156.55
3.23,15163.49
3.23,15170.4
3.24,15177.3
3.24,15184.05
3.24,15190.74
3.24,15197.43
3.24,15204.27
3.24,15211.18
3.25,15218.21
3.25,15225.21
3.25,15232.12
3.25,15238.87
3.25,15245.59
3.25,15252.27
3.26,15258.9
3.26,15265.46
3.26,15272.02
3.26,15278.59
3.26,15284.93
3.26,15291.24
3.27,15297.65
3.27,15304.15
3.27,15310.62
3.27,15317.27
3.27,15324.12
3.27,15331.05
3.28,15337.96
3.28,15344.84
3.28,15351.93
3.28,15358.99
3.28,15366.05
3.28,15373.21
3.29,15380.46
3.29,15387.62
3.29,15394.71
3.29,15401.87
3.29,15409.02
3.29,15415.99
3.3,15422.74
3.3,15429.43
3.3,15436.15
3.3,15442.8
3.3,15449.34
3.3,15455.96
3.31,15462.37
3.31,15468.59
3.31,15474.55
3.31,15480.43
3.31,15486.21
3.31,15491.96
3.32,15497.65
3.32,15503.34
3.32,15508.99
3.32,15514.59
3.32,15520.37
3.32,15526.18
3.33,15532.12
3.33,15538.3
3.33,15544.74
3.33,15551.37
3.33,15557.99
3.33,15564.55
3.34,15571.21
3.34,15577.71
3.34,15584.15
3.34,15590.65
3.34,15597.37
3.34,15603.96
3.35,15610.43
3.35,15616.77
3.35,15622.99
3.35,15629.15
3.35,15635.15
3.35,15641.21
3.36,15647.21
3.36,15653.21
3.36,15659.09
3.36,15664.87
3.36,15670.62
3.36,15676.27
3.37,15681.9
3.37,15687.52
3.37,15693.18
3.37,15698.87
3.37,15704.52
3.37,15710.21
3.38,15715.87
3.38,15721.62
3.38,15727.52
3.38,15733.52
3.38,15739.55
3.38,15745.68
3.39,15751.96
3.39,15758.18
3.39,15764.49
3.39,15770.8
3.39,15777.05
3.39,15783.21
3.4,15789.21
3.4,15795.21
3.4,15801.18
3.4,15807.05
3.4,15812.84
3.4,15818.59
3.41,15824.15
3.41,15829.62
3.41,15835.09
3.41,15840.55
3.41,15846.05
3.41,15851.49
3.42,15856.96
3.42,15862.4
3.42,15867.77
3.42,15873.15
3.42,15878.4
3.42,15883.52
3.43,15888.59
3.43,15893.77
3.43,15898.87
3.43,15903.93
3.43,15909.02
3.43,15914.21
3.44,15919.46
3.44,15924.71
3.44,15930.18
3.44,15935.77
3.44,15941.55
3.44,15947.15
3.45,15952.9
3.45,15958.59
3.45,15964.21
3.45,15969.71
3.45,15975.15
3.45,15980.68
3.46,15986.21
3.46,15991.71
3.46,15997.15
3.46,16002.62
3.46,16008.05
3.46,16013.59
3.47,16019.05
3.47,16024.52
3.47,16030.05
3.47,16035.62
3.47,16040.99
3.47,16046.27
3.48,16051.52
3.48,16056.65
3.48,16061.55
3.48,16066.4
3.48,16071.3
3.48,16076.27
3.49,16081.34
3.49,16086.49
3.49,16091.71
3.49,16097.05
3.49,16102.27
3.49,16107.65
3.5,16113.21
3.5,16118.87
3.5,16124.49
3.5,16129.74
3.5,16134.65
3.5,16139.37
3.51,16144.15
3.51,16148.93
3.51,16153.9
3.51,16158.84
3.51,16163.8
3.51,16168.84
3.52,16173.84
3.52,16179.15
3.52,16184.62
3.52,16190.15
3.52,16195.52
3.52,16200.9
3.53,16206.15
3.53,16211.43
3.53,16216.59
3.53,16221.49
3.53,16226.27
3.53,16230.99
3.54,16235.59
3.54,16240.15
3.54,16244.77
3.54,16249.37
3.54,16254.05
3.54,16258.68
3.55,16263.34
3.55,16268.15
3.55,16273.09
3.55,16278.24
3.55,16283.55
3.55,16289.02
3.56,16294.56
3.56,16299.94
3.56,16305.28
3.56,16310.59
3.56,16315.87
3.56,16321.16
3.57,16326.59
3.57,16331.91
3.57,16337.19
3.57,16342.28
3.57,16347.25
3.57,16352.19
3.58,16357.09
3.58,16361.91
3.58,16366.72
3.58,16371.59
3.58,16376.25
3.58,16380.84
3.59,16385.25
3.59,16389.53
3.59,16393.81
3.59,16398.03
3.59,16402.28
3.59,16406.69
3.6,16411.09
3.6,16415.44
3.6,16419.87
3.6,16424.4
3.6,16429.15
3.6,16434.03
3.61,16439.03
3.61,16444.31
3.61,16449.62
3.61,16454.84
3.61,16460.15
3.61,16465.47
3.62,16470.69
3.62,16475.78
3.62,16480.94
3.62,16486.09
3.62,16491.19
3.62,16496.15
3.63,16501.09
3.63,16506
3.63,16510.69
3.63,16515.22
3.63,16519.81
3.63,16524.47
3.64,16529.06
3.64,16533.65
3.64,16538.28
3.64,16542.78
3.64,16547.12
3.64,16551.4
3.65,16555.75
3.65,16560.06
3.65,16564.28
3.65,16568.5
3.65,16572.65
3.65,16576.75
3.66,16580.87
3.66,16585.09
3.66,16589.25
3.66,16593.47
3.66,16597.75
3.66,16602.19
3.67,16606.62
3.67,16611.03
3.67,16615.5
3.67,16619.87
3.67,16624.03
3.67,16628.09
3.68,16632.28
3.68,16636.56
3.68,16640.78
3.68,16645.03
3.68,16649.25
3.68,16653.47
3.69,16657.69
3.69,16661.84
3.69,16666.19
3.69,16670.69
3.69,16675.28
3.69,16679.78
3.7,16684.31
3.7,16688.62
3.7,16692.87
3.7,16697
3.7,16701.09
3.7,16705.12
3.71,16709.19
3.71,16713.08
3.71,16716.79
3.71,16720.62
3.71,16724.47
3.71,16728.44
3.72,16732.39
3.72,16736.51
3.72,16740.79
3.72,16745.23
3.72,16749.45
3.72,16753.92
3.73,16758.45
3.73,16762.95
3.73,16767.39
3.73,16771.83
3.73,16776.54
3.73,16781.11
3.74,16785.54
3.74,16789.95
3.74,16794.51
3.74,16798.64
3.74,16802.28
3.74,16805.81
3.75,16809.37
3.75,16812.87
3.75,16816.22
3.75,16819.61
3.75,16822.92
3.75,16826.09
3.76,16829.09
3.76,16832.2
3.76,16835.51
3.76,16838.81
3.76,16842.12
3.76,16845.39
3.77,16848.59
3.77,16851.86
3.77,16855.19
3.77,16858.62
3.77,16862.22
3.77,16866.12
3.78,16870.25
3.78,16874.56
3.78,16878.84
3.78,16883.25
3.78,16887.65
3.78,16891.97
3.79,16896.31
3.79,16900.69
3.79,16905.12
3.79,16909.53
3.79,16913.81
3.79,16917.9
3.8,16922.03
3.8,16926.06
3.8,16930.04
3.8,16934.01
3.8,16938.04
3.8,16942.08
